LabVIEW Measurement	
Writer_Version	2
Reader_Version	2
Separator	Tab
Decimal_Separator	.
Multi_Headings	Yes
X_Columns	One
Time_Pref	Absolute
Operator	abarrett
Date	2018/07/16
Time	13:28:54.636808449942609914
***End_of_Header***	
	
Channels	1	
Samples	200	
Date	2018/07/16	
Time	13:29:04.8908337499424783812	
Y_Unit_Label	Volts	
X_Dimension	Time	
X0	0.0000000000000000E+0	
Delta_X	0.010000	
***End_of_Header***		
X_Value	Voltage	Comment
0.000000	-10.644656
0.010000	-10.644656
0.020000	-10.644656
0.030000	-10.644656
0.040000	-10.644656
0.050000	-10.644656
0.060000	-10.644656
0.070000	-10.644656
0.080000	-10.644656
0.090000	-10.644656
0.100000	-10.644656
0.110000	-10.644656
0.120000	-10.644656
0.130000	-10.644656
0.140000	-10.644656
0.150000	-10.644656
0.160000	-10.644656
0.170000	-10.644656
0.180000	-10.644656
0.190000	-10.644656
0.200000	-10.644656
0.210000	-10.644656
0.220000	-10.644656
0.230000	-10.644656
0.240000	-10.644656
0.250000	-10.644656
0.260000	-10.644656
0.270000	-10.644656
0.280000	-10.644656
0.290000	-10.644656
0.300000	-10.644656
0.310000	-10.644656
0.320000	-10.644656
0.330000	-10.644656
0.340000	-10.644656
0.350000	-10.644656
0.360000	-10.644656
0.370000	-10.644656
0.380000	-10.644656
0.390000	-10.644656
0.400000	-10.644656
0.410000	-10.644656
0.420000	-10.644656
0.430000	-10.644656
0.440000	-10.644656
0.450000	-10.644656
0.460000	-10.644656
0.470000	-10.644656
0.480000	-10.644656
0.490000	-10.644656
0.500000	-10.644656
0.510000	-10.644656
0.520000	-10.644656
0.530000	-10.644656
0.540000	-10.644656
0.550000	-10.644656
0.560000	-10.644656
0.570000	-10.644656
0.580000	-10.644656
0.590000	-10.644656
0.600000	-10.644656
0.610000	-10.644656
0.620000	-10.644656
0.630000	-10.644656
0.640000	-10.644656
0.650000	-10.644656
0.660000	-10.644656
0.670000	-10.644656
0.680000	-10.644656
0.690000	-10.644656
0.700000	-10.644656
0.710000	-10.644656
0.720000	-10.644656
0.730000	-10.644656
0.740000	-10.644656
0.750000	-10.644656
0.760000	-10.644656
0.770000	-10.644656
0.780000	-10.644656
0.790000	-10.644656
0.800000	-10.644656
0.810000	-10.644656
0.820000	-10.644656
0.830000	-10.644656
0.840000	-10.644656
0.850000	-10.644656
0.860000	-10.644656
0.870000	-10.644656
0.880000	-10.644656
0.890000	-10.644656
0.900000	-10.644656
0.910000	-10.644656
0.920000	-10.644656
0.930000	-10.644656
0.940000	-10.644656
0.950000	-10.644656
0.960000	-10.644656
0.970000	-10.644656
0.980000	-10.644656
0.990000	-10.644656
1.000000	-10.644656
1.010000	-10.644656
1.020000	-10.644656
1.030000	-10.644656
1.040000	-10.644656
1.050000	-10.644656
1.060000	-10.644656
1.070000	-10.644656
1.080000	-10.644656
1.090000	-10.644656
1.100000	-10.644656
1.110000	-10.644656
1.120000	-10.644656
1.130000	-10.644656
1.140000	-10.644656
1.150000	-10.644656
1.160000	-10.644656
1.170000	-10.644656
1.180000	-10.644656
1.190000	-10.644656
1.200000	-10.644656
1.210000	-10.644656
1.220000	-10.644656
1.230000	-10.644656
1.240000	-10.644656
1.250000	-10.644656
1.260000	-10.644656
1.270000	-10.644656
1.280000	-10.644656
1.290000	-10.644656
1.300000	-10.644656
1.310000	-10.644656
1.320000	-10.644656
1.330000	-10.644656
1.340000	-10.644656
1.350000	-10.644656
1.360000	-10.644656
1.370000	-10.644656
1.380000	-10.644656
1.390000	-10.644656
1.400000	-10.644656
1.410000	-10.644656
1.420000	-10.644656
1.430000	-10.644656
1.440000	-10.644656
1.450000	-10.644656
1.460000	-10.644656
1.470000	-10.644656
1.480000	-10.644656
1.490000	-10.644656
1.500000	-10.644656
1.510000	-10.644656
1.520000	-10.644656
1.530000	-10.644656
1.540000	-10.644656
1.550000	-10.644656
1.560000	-10.644656
1.570000	-10.644656
1.580000	-10.644656
1.590000	-10.644656
1.600000	-10.644656
1.610000	-10.644656
1.620000	-10.644656
1.630000	-10.644656
1.640000	-10.644656
1.650000	-10.644656
1.660000	-10.644656
1.670000	-10.644656
1.680000	-10.644656
1.690000	-10.644656
1.700000	-10.644656
1.710000	-10.644656
1.720000	-10.644656
1.730000	-10.644656
1.740000	-10.644656
1.750000	-10.644656
1.760000	-10.644656
1.770000	-10.644656
1.780000	-10.644656
1.790000	-10.644656
1.800000	-10.644656
1.810000	-10.644656
1.820000	-10.644656
1.830000	-10.644656
1.840000	-10.644656
1.850000	-10.644656
1.860000	-10.644656
1.870000	-10.644656
1.880000	-10.644656
1.890000	-10.644656
1.900000	-10.644656
1.910000	-10.644656
1.920000	-10.644656
1.930000	-10.644656
1.940000	-10.644656
1.950000	-10.644656
1.960000	-10.644656
1.970000	-10.644656
1.980000	-10.644656
1.990000	-10.644656

